File: Glass/OH Content/FTIR/Borofloat.DPT
1998.13	0.00002
2005.84	0.00004
2013.56	-0.00006
2021.27	0.00006
2028.98	0.00006
2036.7	0.00014
2044.41	0.00024
2052.13	0.00041
2059.84	0.00072
2067.56	0.00108
2075.27	0.00146
2082.99	0.00186
2090.7	0.00224
2098.42	0.00267
2106.13	0.00315
2113.85	0.00379
2121.56	0.00462
2129.28	0.00584
2136.99	0.00736
2144.71	0.00938
2152.42	0.01187
2160.14	0.01481
2167.85	0.01833
2175.57	0.02237
2183.28	0.02656
2190.99	0.03096
2198.71	0.03532
2206.42	0.03953
2214.14	0.04356
2221.85	0.04722
2229.57	0.05060
2237.28	0.05366
2245	0.05652
2252.71	0.05930
2260.43	0.06199
2268.14	0.06475
2275.86	0.06777
2283.57	0.07111
2291.29	0.07496
2299	0.07944
2306.72	0.08469
2314.43	0.09061
2322.15	0.09741
2329.86	0.10487
2337.58	0.11247
2345.29	0.12051
2353	0.12717
2360.72	0.13408
2368.43	0.13964
2376.15	0.14384
2383.86	0.14649
2391.58	0.14745
2399.29	0.14710
2407.01	0.14572
2414.72	0.14332
2422.44	0.14036
2430.15	0.13671
2437.87	0.13264
2445.58	0.12810
2453.3	0.12325
2461.01	0.11823
2468.73	0.11320
2476.44	0.10850
2484.16	0.10425
2491.87	0.10076
2499.59	0.09808
2507.3	0.09654
2515.02	0.09596
2522.73	0.09654
2530.44	0.09817
2538.16	0.10080
2545.87	0.10437
2553.59	0.10892
2561.3	0.11431
2569.02	0.12059
2576.73	0.12750
2584.45	0.13483
2592.16	0.14246
2599.88	0.14983
2607.59	0.15650
2615.31	0.16209
2623.02	0.16596
2630.74	0.16760
2638.45	0.16689
2646.17	0.16348
2653.88	0.15762
2661.6	0.14948
2669.31	0.13959
2677.03	0.12849
2684.74	0.11661
2692.45	0.10473
2700.17	0.09325
2707.88	0.08271
2715.6	0.07337
2723.31	0.06542
2731.03	0.05895
2738.74	0.05408
2746.46	0.05090
2754.17	0.04921
2761.89	0.04928
2769.6	0.05093
2777.32	0.05434
2785.03	0.05912
2792.75	0.06553
2800.46	0.07348
2808.18	0.08276
2815.89	0.09349
2823.61	0.10546
2831.32	0.11884
2839.04	0.13372
2846.75	0.15026
2854.47	0.16855
2862.18	0.18914
2869.89	0.21182
2877.61	0.23645
2885.32	0.26288
2893.04	0.29082
2900.75	0.31988
2908.47	0.34952
2916.18	0.37902
2923.9	0.40824
2931.61	0.43726
2939.33	0.46508
2947.04	0.49118
2954.76	0.51530
2962.47	0.53739
2970.19	0.55807
2977.9	0.57650
2985.62	0.59296
2993.33	0.60793
3001.05	0.62061
3008.76	0.63230
3016.48	0.64257
3024.19	0.65093
3031.9	0.65832
3039.62	0.66448
3047.33	0.66979
3055.05	0.67374
3062.76	0.67699
3070.48	0.67950
3078.19	0.68106
3085.91	0.68216
3093.62	0.68199
3101.34	0.68155
3109.05	0.68084
3116.77	0.67989
3124.48	0.67779
3132.2	0.67594
3139.91	0.67353
3147.63	0.67112
3155.34	0.66862
3163.06	0.66552
3170.77	0.66271
3178.49	0.65954
3186.2	0.65680
3193.91	0.65343
3201.63	0.65047
3209.34	0.64731
3217.06	0.64418
3224.77	0.64080
3232.49	0.63768
3240.2	0.63395
3247.92	0.63082
3255.63	0.62724
3263.35	0.62334
3271.06	0.62022
3278.78	0.61615
3286.49	0.61225
3294.21	0.60864
3301.92	0.60453
3309.64	0.60058
3317.35	0.59583
3325.07	0.59167
3332.78	0.58693
3340.5	0.58286
3348.21	0.57779
3355.93	0.57292
3363.64	0.56804
3371.35	0.56274
3379.07	0.55716
3386.78	0.55171
3394.5	0.54633
3402.21	0.54057
3409.93	0.53448
3417.64	0.52767
3425.36	0.52145
3433.07	0.51538
3440.79	0.50816
3448.5	0.50104
3456.22	0.49409
3463.93	0.48685
3471.65	0.47944
3479.36	0.47202
3487.08	0.46388
3494.79	0.45571
3502.51	0.44750
3510.22	0.43820
3517.94	0.42942
3525.65	0.42018
3533.36	0.41082
3541.08	0.40151
3548.79	0.39122
3556.51	0.38155
3564.22	0.37200
3571.94	0.36234
3579.65	0.35405
3587.37	0.34608
3595.08	0.33874
3602.8	0.33342
3610.51	0.32954
3618.23	0.32875
3625.94	0.33133
3633.66	0.34006
3641.37	0.35416
3649.09	0.37598
3656.8	0.41033
3664.52	0.45348
3672.23	0.50746
3679.95	0.57180
3687.66	0.62349
3695.37	0.68582
3703.09	0.73914
3710.8	0.78268
3718.52	0.82035
3726.23	0.84081
3733.95	0.85215
3741.66	0.85912
3749.38	0.85988
3757.09	0.86683
3764.81	0.86942
3772.52	0.87056
3780.24	0.87224
3787.95	0.87345
3795.67	0.87391
3803.38	0.87309
3811.1	0.87463
3818.81	0.87370
3826.53	0.87438
3834.24	0.87311
3841.96	0.87333
3849.67	0.87509
3857.39	0.87325
3865.1	0.87402
3872.81	0.87378
3880.53	0.87416
3888.24	0.87476
3895.96	0.87444
3903.67	0.87395
3911.39	0.87548
3919.1	0.87575
3926.82	0.87619
3934.53	0.87727
3942.25	0.87695
3949.96	0.87758
3957.68	0.87845
3965.39	0.87931
3973.11	0.88008
3980.82	0.88101
3988.54	0.88182
3996.25	0.88244