File: Glass OH Content/UVVIS/URA/100% or 0 Absorbance Baseline.Correction.Raw.csv
nm, %R
3300, -8.741600
3289, -3.268700
3278, -28.7254
3267, 100.355
3256, 427.041
3245, 72.0353
3234, 54.5049
3223, 46.6447
3212, 43.0553
3201, 37.1793
3190, 33.2444
3179, 32.0691
3168, 29.4018
3157, 28.9492
3146, 28.0843
3135, 27.3348
3124, 27.0427
3113, 26.8944
3102, 26.5631
3091, 26.4554
3080, 26.4313
3069, 26.2512
3058, 26.5516
3047, 26.5972
3036, 26.5125
3025, 26.815
3014, 27.1937
3003, 27.6087
2992, 28.7025
2981, 29.241
2970, 30.0056
2959, 30.7163
2948, 31.5871
2937, 32.1833
2926, 32.9852
2915, 33.5255
2904, 34.1436
2893, 34.5006
2882, 35.0598
2871, 35.4169
2860, 35.7318
2849, 35.9624
2838, 36.3288
2827, 36.3291
2816, 36.689
2805, 37.1216
2794, 37.2772
2783, 38.6395
2772, 39.3301
2761, 40.1226
2750, 40.0016
2739, 41.7389
2728, 42.4625
2717, 44.5015
2706, 46.4055
2695, 51.523
2684, 59.1109
2673, 68.4126
2662, 68.9788
2651, 71.2648
2640, 74.2246
2629, 76.7707
2618, 76.3367
2607, 76.6515
2596, 76.1083
2585, 75.0939
2574, 73.9517
2563, 73.6366
2552, 72.8418
2541, 72.4556
2530, 71.5373
2519, 71.0343
2508, 70.6392
2497, 70.4153
2486, 70.3202
2475, 70.4271
2464, 70.7819
2453, 71.4631
2442, 72.5363
2431, 73.9254
2420, 75.43
2409, 76.8223
2398, 78.1292
2387, 79.2886
2376, 80.1621
2365, 80.87
2354, 81.1586
2343, 81.0428
2332, 80.6806
2321, 79.7944
2310, 78.5448
2299, 77.0572
2288, 75.4986
2277, 74.078
2266, 72.7105
2255, 71.5333
2244, 70.6948
2233, 70.1263
2222, 69.8978
2211, 70.107
2200, 71.0531
2189, 72.6379
2178, 74.187
2167, 75.6724
2156, 77.0465
2145, 78.2938
2134, 79.2355
2123, 79.7707
2112, 79.8653
2101, 79.453
2090, 78.588
2079, 77.4307
2068, 76.065
2057, 74.6612
2046, 73.4178
2035, 72.542
2024, 72.0766
2013, 72.1083
2002, 72.6176
1991, 73.5094
1980, 74.52
1969, 75.4407
1958, 76.063
1947, 76.2261
1936, 75.6662
1925, 74.4017
1914, 72.9928
1903, 71.767
1892, 70.752
1881, 70.314
1870, 68.4906
1859, 67.5064
1848, 67.492
1837, 67.1868
1826, 68.0223
1815, 69.5885
1804, 71.3167
1793, 72.6977
1782, 73.0382
1771, 72.565
1760, 72.2498
1749, 71.7221
1738, 70.9346
1727, 70.0582
1716, 69.2829
1705, 68.8299
1694, 68.7548
1683, 69.1426
1672, 69.8648
1661, 70.5354
1650, 71.5667
1639, 72.4105
1628, 72.9025
1617, 72.9228
1606, 72.6147
1595, 72.2014
1584, 71.9802
1573, 72.1177
1562, 72.5539
1551, 73.1677
1540, 73.9357
1529, 74.8287
1518, 75.8155
1507, 76.7576
1496, 77.389
1485, 77.51
1474, 77.2485
1463, 77.2081
1452, 77.7088
1441, 78.4336
1430, 79.355
1419, 80.1454
1408, 80.3885
1397, 80.1674
1386, 80
1375, 79.5354
1364, 79.2073
1353, 79.9097
1342, 83.5225
1331, 85.6667
1320, 86.1859
1309, 85.9836
1298, 85.8045
1287, 85.7689
1276, 85.5964
1265, 85.6657
1254, 86.3747
1243, 86.9362
1232, 86.1306
1221, 84.6495
1210, 84.0447
1199, 84.1744
1188, 83.6327
1177, 83.6842
1166, 83.1401
1155, 81.9394
1144, 80.5883
1133, 79.7962
1122, 79.4585
1111, 79.2509
1100, 78.5215
1089, 77.1499
1078, 75.9781
1067, 75.3631
1056, 74.9249
1045, 73.9476
1034, 72.609
1023, 71.4731
1012, 70.7824
1001, 69.9439
990, 68.5388
979, 67.0325
968, 66.0084
957, 65.0319
946, 63.5124
935, 61.8899
924, 60.8303
913, 59.8045
902, 58.3566
891, 57.1163
880, 169.522
869, 167.817
858, 166.385
847, 165.262
836, 164.707
825, 164.583
814, 164.897
803, 165.381
792, 166.003
781, 166.599
770, 167.161
759, 167.625
748, 167.976
737, 168.238
726, 168.435
715, 168.536
704, 168.6
693, 168.594
682, 168.556
671, 168.427
660, 168.255
649, 168.07
638, 167.788
627, 167.485
616, 167.071
605, 166.619
594, 166.097
583, 165.498
572, 164.828
561, 164.019
550, 163.13
539, 162.189
528, 161.218
517, 160.497
506, 160.511
495, 160.872
484, 158.962
473, 157.032
462, 156.457
451, 156.314
440, 154.901
429, 153.339
418, 151.709
407, 149.952
396, 148.076
385, 146.086
374, 143.322
363, 141.773
352, 139.94
341, 138.013
330, 135.976
319, 134.196
308, 132.571
297, 131.723
286, 130.969
275, 131.354
264, 133.531
253, 136.264
250, 136.848