File: Glass OH Content/UVVIS/URA/Spectrosil 2000.Sample.Raw.csv
nm, %R
3300, 1.241900
3289, -5.185500
3278, -66.0461
3267, -38.7451
3256, 36.9162
3245, -7.666519
3234, 4.159259
3223, 7.508677
3212, 6.686285
3201, 3.529652
3190, 1.078076
3179, 3.457846
3168, 1.855329
3157, 2.767952
3146, 2.215829
3135, 2.554253
3124, 2.087439
3113, 2.646276
3102, 2.109317
3091, 2.382878
3080, 2.447099
3069, 2.421985
3058, 2.852559
3047, 3.366896
3036, 2.978595
3025, 3.636398
3014, 3.683942
3003, 4.015763
2992, 6.110269
2981, 5.607195
2970, 6.093196
2959, 5.869522
2948, 5.886580
2937, 5.656350
2926, 5.728630
2915, 5.622586
2904, 5.577326
2893, 5.586570
2882, 5.374532
2871, 5.120155
2860, 4.804684
2849, 4.753020
2838, 4.481568
2827, 4.462538
2816, 3.799504
2805, 3.747414
2794, 3.555256
2783, 3.521008
2772, 3.364599
2761, 3.303126
2750, 3.223121
2739, 3.205882
2728, 3.280306
2717, 3.241688
2706, 3.236685
2695, 3.253110
2684, 3.860033
2673, 4.828935
2662, 5.223779
2651, 5.324789
2640, 5.396594
2629, 5.462240
2618, 5.524996
2607, 5.600673
2596, 5.671261
2585, 5.616169
2574, 5.676272
2563, 5.662537
2552, 5.759468
2541, 5.739929
2530, 5.948505
2519, 5.948112
2508, 5.963969
2497, 5.943879
2486, 5.955188
2475, 5.975115
2464, 6.013967
2453, 5.979450
2442, 6.049661
2431, 6.067603
2420, 6.124221
2409, 6.100052
2398, 6.119863
2387, 6.062662
2376, 6.117604
2365, 6.120193
2354, 6.140569
2343, 6.093570
2332, 6.116464
2321, 6.034007
2310, 6.118164
2299, 6.091319
2288, 6.035344
2277, 6.045520
2266, 5.930918
2255, 5.937794
2244, 5.889118
2233, 5.877110
2222, 5.822930
2211, 5.807837
2200, 5.887428
2189, 6.020686
2178, 6.069931
2167, 6.131430
2156, 6.163031
2145, 6.181077
2134, 6.190155
2123, 6.194380
2112, 6.220098
2101, 6.193599
2090, 6.191276
2079, 6.211102
2068, 6.213107
2057, 6.217018
2046, 6.229552
2035, 6.236939
2024, 6.245300
2013, 6.232154
2002, 6.253580
1991, 6.265321
1980, 6.261406
1969, 6.258558
1958, 6.267173
1947, 6.254944
1936, 6.256426
1925, 6.247976
1914, 6.256644
1903, 6.269177
1892, 6.254664
1881, 6.257929
1870, 6.248011
1859, 6.274368
1848, 6.272743
1837, 6.282038
1826, 6.280881
1815, 6.282072
1804, 6.269359
1793, 6.283555
1782, 6.276168
1771, 6.279198
1760, 6.257872
1749, 6.281885
1738, 6.260133
1727, 6.265362
1716, 6.279616
1705, 6.289999
1694, 6.281307
1683, 6.293226
1672, 6.279271
1661, 6.293010
1650, 6.284487
1639, 6.290110
1628, 6.297589
1617, 6.288294
1606, 6.296934
1595, 6.296138
1584, 6.294787
1573, 6.296374
1562, 6.307862
1551, 6.299501
1540, 6.310348
1529, 6.295312
1518, 6.307022
1507, 6.290322
1496, 6.297277
1485, 6.288350
1474, 6.307307
1463, 6.296490
1452, 6.296584
1441, 6.297174
1430, 6.295508
1419, 6.289319
1408, 6.275524
1397, 6.254912
1386, 6.218250
1375, 6.234834
1364, 6.293612
1353, 6.305242
1342, 6.300099
1331, 6.298714
1320, 6.294881
1309, 6.303528
1298, 6.307128
1287, 6.302168
1276, 6.295475
1265, 6.294701
1254, 6.292004
1243, 6.296341
1232, 6.306469
1221, 6.311201
1210, 6.305811
1199, 6.306549
1188, 6.306983
1177, 6.308837
1166, 6.311515
1155, 6.317230
1144, 6.313944
1133, 6.321604
1122, 6.323301
1111, 6.329392
1100, 6.329986
1089, 6.333385
1078, 6.320769
1067, 6.331215
1056, 6.333942
1045, 6.335973
1034, 6.346045
1023, 6.347003
1012, 6.365000
1001, 6.333361
990, 6.375659
979, 6.368254
968, 6.387975
957, 6.377486
946, 6.388516
935, 6.365659
924, 6.393195
913, 6.418413
902, 6.417954
891, 6.393271
880, 6.689271
869, 6.693819
858, 6.694614
847, 6.697950
836, 6.698384
825, 6.703167
814, 6.706720
803, 6.708691
792, 6.710232
781, 6.717639
770, 6.719634
759, 6.725019
748, 6.728572
737, 6.733386
726, 6.739276
715, 6.745126
704, 6.748537
693, 6.755804
682, 6.761270
671, 6.766904
660, 6.775842
649, 6.782127
638, 6.790490
627, 6.797385
616, 6.807804
605, 6.816801
594, 6.827577
583, 6.840320
572, 6.853161
561, 6.868546
550, 6.884689
539, 6.901627
528, 6.917789
517, 6.929493
506, 6.925146
495, 6.908926
484, 6.940859
473, 6.978441
462, 6.982868
451, 6.973011
440, 6.992517
429, 7.017654
418, 7.043334
407, 7.067576
396, 7.092926
385, 7.120747
374, 7.173582
363, 7.191511
352, 7.226954
341, 7.265263
330, 7.308874
319, 7.369812
308, 7.412492
297, 7.455646
286, 7.531964
275, 7.626039
264, 7.712534
253, 7.811572
250, 7.859838